engine speed [1/min], full load torque [Nm], motoring torque [Nm]
600,478,-35
608,485.52,-35.31693
616,493.04,-35.63385
624,500.56,-35.95077
632,508.08,-36.26769
640,515.6,-36.58462
648,523.12,-36.90154
656,530.64,-37.21846
664,538.16,-37.53539
672,545.68,-37.85231
680,553.2,-38.16923
688,560.72,-38.48615
696,568.24,-38.80308
704,575.76,-39.12
712,583.28,-39.43692
720,590.8,-39.75385
728,598.32,-40.07077
736,605.84,-40.3877
744,613.36,-40.70462
752,620.88,-41.02154
760,628.4,-41.33846
768,635.92,-41.65539
776,643.44,-41.97231
784,650.96,-42.28923
792,658.48,-42.60616
800,666,-42.92308
808,673.44,-43.24
816,680.88,-43.48
824,688.32,-43.72
832,695.76,-43.96
840,703.2,-44.2
848,710.64,-44.44
856,718.08,-44.68
864,725.52,-44.92
872,732.96,-45.16
880,740.4,-45.4
888,747.84,-45.64
896,755.28,-45.88
904,762.72,-46.12
912,770.16,-46.36
920,777.6,-46.6
928,785.04,-46.84
936,792.48,-47.08
944,799.92,-47.32
952,807.36,-47.56
960,814.8,-47.8
968,822.24,-48.04
976,829.68,-48.28
984,837.12,-48.52
992,844.56,-48.76
1000,852,-49
1008,856.16,-49.4
1016,860.32,-49.8
1024,864.48,-50.19579
1032,868.64,-50.59098
1040,872.8,-50.98618
1048,876.96,-51.38137
1056,881.12,-51.77656
1064,885.28,-52.17175
1072,889.44,-52.56694
1080,893.6,-52.96214
1088,897.76,-53.35733
1096,901.92,-53.75252
1104,906.08,-54.14772
1112,910.24,-54.54291
1120,914.4,-54.9381
1128,918.56,-55.33329
1136,922.72,-55.72849
1144,926.88,-56.12368
1152,931.04,-56.51887
1160,935.2,-56.91406
1168,939.36,-57.30925
1176,943.52,-57.70444
1184,947.68,-58.09964
1192,951.84,-58.49483
1200,956,-58.89002
1208,956,-59.28522
1216,956,-59.68041
1224,956,-60.0756
1232,956,-60.44
1240,956,-60.8
1248,956,-61.16
1256,956,-61.52
1264,956,-61.88
1272,956,-62.24
1280,956,-62.6
1288,956,-62.96
1296,956,-63.32
1304,956,-63.68
1312,956,-64.04
1320,956,-64.4
1328,956,-64.76
1336,956,-65.12
1344,956,-65.48
1352,956,-65.84
1360,956,-66.2
1368,956,-66.56
1376,956,-66.92
1384,956,-67.28
1392,956,-67.64
1400,956,-68
1408,956,-68.36
1416,956,-68.72
1424,956,-69.08
1432,956,-69.44
1440,956,-69.76736
1448,956,-70.08386
1456,956,-70.40035
1464,956,-70.71684
1472,956,-71.03333
1480,956,-71.34982
1488,956,-71.66631
1496,956,-71.9828
1504,956,-72.2993
1512,956,-72.61579
1520,956,-72.93228
1528,956,-73.24877
1536,956,-73.56526
1544,956,-73.88175
1552,956,-74.19825
1560,956,-74.51474
1568,956,-74.83123
1576,956,-75.14772
1584,956,-75.46421
1592,956,-75.7807
1600,956,-76.0972
1608,953.56,-76.41369
1616,951.12,-76.73018
1624,948.68,-77.04667
1632,946.24,-77.36316
1640,943.8,-77.67965
1648,941.36,-77.99614
1656,938.92,-78.31264
1664,936.48,-78.6
1672,934.04,-78.8
1680,931.6,-79
1688,929.16,-79.2
1696,926.72,-79.4
1704,924.28,-79.6
1712,921.84,-79.8
1720,919.4,-80
1728,916.96,-80.2
1736,914.52,-80.4
1744,912.08,-80.6
1752,909.64,-80.8
1760,907.2,-81
1768,904.76,-81.2
1776,902.32,-81.4
1784,899.88,-81.6
1792,897.44,-81.8
1800,895,-82
1808,892.24,-82.24
1816,889.48,-82.48
1824,886.72,-82.72
1832,883.96,-82.96
1840,881.2,-83.2
1848,878.44,-83.44
1856,875.68,-83.68
1864,872.92,-83.92
1872,870.16,-84.16
1880,867.4,-84.4
1888,864.64,-84.64
1896,861.88,-84.88
1904,859.12,-85.12
1912,856.36,-85.36
1920,853.6,-85.6
1928,850.84,-85.84
1936,848.08,-86.08
1944,845.32,-86.32
1952,842.56,-86.56
1960,839.8,-86.8
1968,837.04,-87.04
1976,834.28,-87.28
1984,831.52,-87.52
1992,828.76,-87.76
2000,826,-88
2008,823.36,-88.44
2016,820.72,-88.88
2024,818.08,-89.32
2032,815.44,-89.76
2040,812.8,-90.2
2048,810.16,-90.64
2056,807.52,-91.08
2064,804.88,-91.52
2072,802.24,-91.96
2080,799.6,-92.4
2088,796.96,-92.84
2096,794.32,-93.28
2104,791.68,-93.72
2112,789.04,-94.16
2120,786.4,-94.6
2128,783.76,-95.04
2136,781.12,-95.48
2144,778.48,-95.92
2152,775.84,-96.36
2160,773.2,-96.8
2168,770.56,-97.24
2176,767.92,-97.68
2184,765.28,-98.06694
2192,762.64,-98.40081
2200,760,-98.73468
2208,755.56,-99.06856
2216,751.12,-99.40243
2224,746.68,-99.73631
2232,742.24,-100.0702
2240,737.8,-100.404
2248,733.36,-100.7379
2256,728.92,-101.0718
2264,724.48,-101.4057
2272,720.04,-101.7395
2280,715.6,-102.0734
2288,711.16,-102.4073
2296,706.72,-102.7412
2304,702.28,-103.075
2312,697.84,-103.4089
2320,693.4,-103.7428
2328,688.96,-104.0767
2336,684.52,-104.4105
2344,680.08,-104.7444
2352,675.64,-105.0783
2360,671.2,-105.4
2368,666.76,-105.72
2376,662.32,-106.04
2384,657.88,-106.36
2392,653.44,-106.68
2400,649,-107
2408,642.36,-107.32
2416,635.72,-107.64
2424,629.08,-107.96
2432,622.44,-108.28
2440,615.8,-108.6
2448,609.16,-108.92
2456,602.52,-109.24
2464,595.88,-109.56
2472,589.24,-109.88
2480,582.6,-110.2
2488,575.96,-110.52
2496,569.32,-110.84
2504,543.36,-111.16
2512,498.08,-111.48
2520,452.8,-111.8
2528,407.52,-112.12
2536,362.24,-112.44
2544,316.96,-112.76
2552,271.68,-113.08
2560,226.4,-113.4
2568,181.12,-113.72
2576,135.84,-114.04
2584,90.56,-114.36
2592,45.28,-114.68
2600,0,-115
